LabVIEW Measurement	
Writer_Version	2
Reader_Version	2
Separator	Tab
Decimal_Separator	.
Multi_Headings	Yes
X_Columns	One
Time_Pref	Absolute
Operator	W-Tunnel
Date	2024/05/22
Time	17:56:40.4353401562498981604
***End_of_Header***	
	
Channels	1	
Samples	10000	
Date	2024/05/23	
Time	15:01:16.3525231812498783974	
Y_Unit_Label	Volts	
X_Dimension	Time	
X0	0.0000000000000000E+0	
Delta_X	0.000488	
***End_of_Header***		
X_Value	Voltage	Comment
0.000000	1.654475
0.000488	1.653991
0.000977	1.654040
0.001465	1.653981
0.001953	1.654198
0.002441	1.654345
0.002930	1.654175
0.003418	1.653915
0.003906	1.653988
0.004395	1.654125
0.004883	1.654081
0.005371	1.653798
0.005859	1.654012
0.006348	1.653994
0.006836	1.654081
0.007324	1.653981
0.007812	1.654002
0.008301	1.654064
0.008789	1.653910
0.009277	1.654109
0.009766	1.654048
0.010254	1.653834
0.010742	1.653764
0.011230	1.654025
0.011719	1.654182
0.012207	1.653986
0.012695	1.654195
0.013184	1.654135
0.013672	1.654375
0.014160	1.653908
0.014648	1.654043
0.015137	1.654155
0.015625	1.654135
0.016113	1.654289
0.016602	1.654218
0.017090	1.654274
0.017578	1.654415
0.018066	1.654345
0.018555	1.654386
0.019043	1.654096
0.019531	1.654347
0.020020	1.654195
0.020508	1.654344
0.020996	1.654307
0.021484	1.654247
0.021973	1.654254
0.022461	1.654160
0.022949	1.654206
0.023437	1.654530
0.023926	1.654475
0.024414	1.654394
0.024902	1.654134
0.025391	1.654153
0.025879	1.654513
0.026367	1.654541
0.026855	1.654239
0.027344	1.654192
0.027832	1.654876
0.028320	1.654695
0.028809	1.654705
0.029297	1.654571
0.029785	1.654622
0.030273	1.654685
0.030762	1.654580
0.031250	1.654616
0.031738	1.654529
0.032227	1.654611
0.032715	1.654820
0.033203	1.654843
0.033691	1.654752
0.034180	1.654721
0.034668	1.654710
0.035156	1.654652
0.035645	1.654878
0.036133	1.654810
0.036621	1.654751
0.037109	1.654789
0.037598	1.654946
0.038086	1.654802
0.038574	1.654947
0.039062	1.654818
0.039551	1.654892
0.040039	1.654923
0.040527	1.654933
0.041016	1.654934
0.041504	1.655138
0.041992	1.654982
0.042480	1.654976
0.042969	1.655144
0.043457	1.655034
0.043945	1.654935
0.044434	1.655280
0.044922	1.655350
0.045410	1.655371
0.045898	1.655084
0.046387	1.654570
0.046875	1.655192
0.047363	1.655216
0.047852	1.655094
0.048340	1.654892
0.048828	1.655266
0.049316	1.655065
0.049805	1.655053
0.050293	1.654937
0.050781	1.654891
0.051270	1.654998
0.051758	1.654914
0.052246	1.654971
0.052734	1.654846
0.053223	1.654857
0.053711	1.655094
0.054199	1.655048
0.054687	1.654978
0.055176	1.655097
0.055664	1.654772
0.056152	1.655091
0.056641	1.655159
0.057129	1.655123
0.057617	1.655130
0.058105	1.655074
0.058594	1.655004
0.059082	1.654915
0.059570	1.655081
0.060059	1.655274
0.060547	1.654824
0.061035	1.654681
0.061523	1.654935
0.062012	1.655087
0.062500	1.655022
0.062988	1.654865
0.063477	1.654578
0.063965	1.654679
0.064453	1.654887
0.064941	1.654651
0.065430	1.654688
0.065918	1.654604
0.066406	1.654724
0.066895	1.654633
0.067383	1.654618
0.067871	1.654414
0.068359	1.654551
0.068848	1.654627
0.069336	1.654661
0.069824	1.654600
0.070312	1.654408
0.070801	1.654652
0.071289	1.654633
0.071777	1.654621
0.072266	1.654528
0.072754	1.654679
0.073242	1.654623
0.073730	1.654644
0.074219	1.654602
0.074707	1.654577
0.075195	1.654461
0.075684	1.654771
0.076172	1.654829
0.076660	1.654591
0.077148	1.654187
0.077637	1.654450
0.078125	1.654621
0.078613	1.654642
0.079102	1.654121
0.079590	1.654495
0.080078	1.654648
0.080566	1.654464
0.081055	1.654481
0.081543	1.654328
0.082031	1.654172
0.082520	1.654555
0.083008	1.654499
0.083496	1.654420
0.083984	1.654424
0.084473	1.654419
0.084961	1.654186
0.085449	1.654389
0.085937	1.654347
0.086426	1.654057
0.086914	1.654225
0.087402	1.654403
0.087891	1.654416
0.088379	1.654447
0.088867	1.654248
0.089355	1.654181
0.089844	1.654470
0.090332	1.654469
0.090820	1.654496
0.091309	1.654213
0.091797	1.654257
0.092285	1.654088
0.092773	1.654132
0.093262	1.654467
0.093750	1.654647
0.094238	1.654035
0.094727	1.654126
0.095215	1.654395
0.095703	1.654521
0.096191	1.654232
0.096680	1.654217
0.097168	1.654135
0.097656	1.654526
0.098145	1.654359
0.098633	1.654164
0.099121	1.654442
0.099609	1.654373
0.100098	1.654314
0.100586	1.654075
0.101074	1.653904
0.101562	1.654251
0.102051	1.654330
0.102539	1.654079
0.103027	1.654114
0.103516	1.654611
0.104004	1.654238
0.104492	1.654336
0.104980	1.654349
0.105469	1.654602
0.105957	1.654326
0.106445	1.654117
0.106934	1.654278
0.107422	1.654470
0.107910	1.654565
0.108398	1.654580
0.108887	1.654548
0.109375	1.654634
0.109863	1.654566
0.110352	1.654595
0.110840	1.654536
0.111328	1.654619
0.111816	1.654798
0.112305	1.654629
0.112793	1.654449
0.113281	1.654500
0.113770	1.654486
0.114258	1.654636
0.114746	1.654817
0.115234	1.654560
0.115723	1.654549
0.116211	1.654369
0.116699	1.654316
0.117187	1.654672
0.117676	1.654766
0.118164	1.654218
0.118652	1.654425
0.119141	1.654774
0.119629	1.654690
0.120117	1.654497
0.120605	1.654450
0.121094	1.654502
0.121582	1.654746
0.122070	1.654713
0.122559	1.654627
0.123047	1.654641
0.123535	1.654613
0.124023	1.654856
0.124512	1.654860
0.125000	1.654682
0.125488	1.654788
0.125977	1.654839
0.126465	1.655221
0.126953	1.654821
0.127441	1.654845
0.127930	1.654529
0.128418	1.654524
0.128906	1.654779
0.129395	1.654654
0.129883	1.654796
0.130371	1.654871
0.130859	1.654690
0.131348	1.654619
0.131836	1.654532
0.132324	1.654629
0.132812	1.654588
0.133301	1.654809
0.133789	1.654557
0.134277	1.654824
0.134766	1.654619
0.135254	1.654712
0.135742	1.654908
0.136230	1.654734
0.136719	1.654808
0.137207	1.654639
0.137695	1.654588
0.138184	1.654485
0.138672	1.654780
0.139160	1.654610
0.139648	1.654676
0.140137	1.654875
0.140625	1.654719
0.141113	1.654779
0.141602	1.654422
0.142090	1.654528
0.142578	1.654562
0.143066	1.654618
0.143555	1.654348
0.144043	1.654503
0.144531	1.654807
0.145020	1.654657
0.145508	1.654675
0.145996	1.654676
0.146484	1.654553
0.146973	1.654562
0.147461	1.654605
0.147949	1.654816
0.148437	1.654693
0.148926	1.654588
0.149414	1.654488
0.149902	1.654497
0.150391	1.654517
0.150879	1.654555
0.151367	1.654325
0.151855	1.654231
0.152344	1.654317
0.152832	1.654406
0.153320	1.654388
0.153809	1.654341
0.154297	1.654148
0.154785	1.654178
0.155273	1.654239
0.155762	1.654109
0.156250	1.654146
0.156738	1.654231
0.157227	1.654087
0.157715	1.654246
0.158203	1.654149
0.158691	1.653929
0.159180	1.654021
0.159668	1.654251
0.160156	1.654156
0.160645	1.654179
0.161133	1.653932
0.161621	1.653970
0.162109	1.654095
0.162598	1.653971
0.163086	1.654067
0.163574	1.654034
0.164062	1.653805
0.164551	1.653904
0.165039	1.654034
0.165527	1.654336
0.166016	1.653892
0.166504	1.653871
0.166992	1.654002
0.167480	1.654184
0.167969	1.653952
0.168457	1.653757
0.168945	1.654055
0.169434	1.654062
0.169922	1.653636
0.170410	1.653696
0.170898	1.653862
0.171387	1.653728
0.171875	1.653834
0.172363	1.653823
0.172852	1.653968
0.173340	1.653718
0.173828	1.653584
0.174316	1.653709
0.174805	1.653780
0.175293	1.653947
0.175781	1.654029
0.176270	1.653929
0.176758	1.653980
0.177246	1.654008
0.177734	1.654110
0.178223	1.653814
0.178711	1.654058
0.179199	1.654256
0.179687	1.654015
0.180176	1.653831
0.180664	1.653938
0.181152	1.653811
0.181641	1.654139
0.182129	1.654134
0.182617	1.653768
0.183105	1.653489
0.183594	1.653866
0.184082	1.653862
0.184570	1.653628
0.185059	1.653761
0.185547	1.653678
0.186035	1.653799
0.186523	1.654009
0.187012	1.653821
0.187500	1.653851
0.187988	1.653788
0.188477	1.653815
0.188965	1.654137
0.189453	1.654217
0.189941	1.653800
0.190430	1.654021
0.190918	1.653946
0.191406	1.654070
0.191895	1.654108
0.192383	1.654071
0.192871	1.653824
0.193359	1.653960
0.193848	1.653963
0.194336	1.653897
0.194824	1.654082
0.195312	1.653894
0.195801	1.653832
0.196289	1.654005
0.196777	1.653976
0.197266	1.654043
0.197754	1.654009
0.198242	1.654012
0.198730	1.654102
0.199219	1.654128
0.199707	1.653841
0.200195	1.653894
0.200684	1.654397
0.201172	1.654363
0.201660	1.654253
0.202148	1.654253
0.202637	1.654251
0.203125	1.654480
0.203613	1.654233
0.204102	1.654283
0.204590	1.654463
0.205078	1.654420
0.205566	1.654612
0.206055	1.654439
0.206543	1.654040
0.207031	1.654334
0.207520	1.654399
0.208008	1.654514
0.208496	1.654295
0.208984	1.654436
0.209473	1.654413
0.209961	1.654245
0.210449	1.654471
0.210937	1.654101
0.211426	1.654169
0.211914	1.654612
0.212402	1.654625
0.212891	1.654511
0.213379	1.654453
0.213867	1.654426
0.214355	1.654539
0.214844	1.654700
0.215332	1.654577
0.215820	1.654675
0.216309	1.654247
0.216797	1.654237
0.217285	1.654574
0.217773	1.654641
0.218262	1.654600
0.218750	1.654524
0.219238	1.654776
0.219727	1.654441
0.220215	1.654520
0.220703	1.654296
0.221191	1.654084
0.221680	1.654475
0.222168	1.654595
0.222656	1.654258
0.223145	1.654214
0.223633	1.654120
0.224121	1.654292
0.224609	1.654469
0.225098	1.654625
0.225586	1.654461
0.226074	1.654380
0.226562	1.654157
0.227051	1.654403
0.227539	1.654768
0.228027	1.654505
0.228516	1.654311
0.229004	1.654530
0.229492	1.654728
0.229980	1.654495
0.230469	1.654511
0.230957	1.654253
0.231445	1.654320
0.231934	1.654547
0.232422	1.654447
0.232910	1.654295
0.233398	1.654290
0.233887	1.654259
0.234375	1.654283
0.234863	1.654314
0.235352	1.654208
0.235840	1.654214
0.236328	1.654101
0.236816	1.654281
0.237305	1.654365
0.237793	1.654311
0.238281	1.653910
0.238770	1.654267
0.239258	1.654630
0.239746	1.654373
0.240234	1.654301
0.240723	1.654117
0.241211	1.654168
0.241699	1.654392
0.242187	1.654362
0.242676	1.654139
0.243164	1.654250
0.243652	1.654508
0.244141	1.654494
0.244629	1.654395
0.245117	1.654287
0.245605	1.654280
0.246094	1.654208
0.246582	1.654393
0.247070	1.654378
0.247559	1.654269
0.248047	1.654395
0.248535	1.654314
0.249023	1.654321
0.249512	1.654062
0.250000	1.654020
0.250488	1.654158
0.250977	1.653879
0.251465	1.654096
0.251953	1.654115
0.252441	1.653738
0.252930	1.653963
0.253418	1.654158
0.253906	1.654060
0.254395	1.654032
0.254883	1.654126
0.255371	1.653962
0.255859	1.654082
0.256348	1.654108
0.256836	1.654285
0.257324	1.654373
0.257812	1.654345
0.258301	1.654295
0.258789	1.654377
0.259277	1.654247
0.259766	1.654352
0.260254	1.654429
0.260742	1.654428
0.261230	1.654248
0.261719	1.654268
0.262207	1.653773
0.262695	1.654086
0.263184	1.654150
0.263672	1.654264
0.264160	1.654131
0.264648	1.654130
0.265137	1.654114
0.265625	1.654223
0.266113	1.654078
0.266602	1.653993
0.267090	1.654138
0.267578	1.654503
0.268066	1.654270
0.268555	1.654194
0.269043	1.654225
0.269531	1.654161
0.270020	1.654418
0.270508	1.654361
0.270996	1.653972
0.271484	1.654077
0.271973	1.654349
0.272461	1.654142
0.272949	1.654189
0.273437	1.654189
0.273926	1.654065
0.274414	1.654220
0.274902	1.654254
0.275391	1.654136
0.275879	1.654076
0.276367	1.654283
0.276855	1.654544
0.277344	1.654381
0.277832	1.654554
0.278320	1.653954
0.278809	1.654041
0.279297	1.654342
0.279785	1.654265
0.280273	1.654519
0.280762	1.654145
0.281250	1.654106
0.281738	1.654239
0.282227	1.654114
0.282715	1.654086
0.283203	1.654054
0.283691	1.654369
0.284180	1.654627
0.284668	1.654517
0.285156	1.654422
0.285645	1.654215
0.286133	1.654242
0.286621	1.654318
0.287109	1.654549
0.287598	1.654614
0.288086	1.654406
0.288574	1.654467
0.289062	1.654604
0.289551	1.654513
0.290039	1.654507
0.290527	1.654519
0.291016	1.654155
0.291504	1.654341
0.291992	1.654373
0.292480	1.654209
0.292969	1.654110
0.293457	1.654337
0.293945	1.654685
0.294434	1.654477
0.294922	1.654443
0.295410	1.654409
0.295898	1.654357
0.296387	1.654686
0.296875	1.654593
0.297363	1.654823
0.297852	1.655059
0.298340	1.654717
0.298828	1.654991
0.299316	1.654384
0.299805	1.654630
0.300293	1.654879
0.300781	1.654630
0.301270	1.654665
0.301758	1.654791
0.302246	1.654950
0.302734	1.654727
0.303223	1.654780
0.303711	1.654777
0.304199	1.654593
0.304687	1.654600
0.305176	1.654713
0.305664	1.654703
0.306152	1.654989
0.306641	1.654907
0.307129	1.654743
0.307617	1.654825
0.308105	1.654924
0.308594	1.654793
0.309082	1.654833
0.309570	1.654867
0.310059	1.654889
0.310547	1.654880
0.311035	1.654912
0.311523	1.654804
0.312012	1.655068
0.312500	1.654726
0.312988	1.654850
0.313477	1.654953
0.313965	1.654802
0.314453	1.654822
0.314941	1.654497
0.315430	1.654673
0.315918	1.654651
0.316406	1.655057
0.316895	1.655015
0.317383	1.654754
0.317871	1.654816
0.318359	1.654686
0.318848	1.654785
0.319336	1.654573
0.319824	1.654430
0.320312	1.654960
0.320801	1.654887
0.321289	1.654608
0.321777	1.654413
0.322266	1.654059
0.322754	1.654594
0.323242	1.654675
0.323730	1.654511
0.324219	1.654226
0.324707	1.654619
0.325195	1.654719
0.325684	1.654587
0.326172	1.654506
0.326660	1.654568
0.327148	1.654692
0.327637	1.654641
0.328125	1.654563
0.328613	1.654234
0.329102	1.654504
0.329590	1.654760
0.330078	1.654719
0.330566	1.654610
0.331055	1.654363
0.331543	1.654471
0.332031	1.654441
0.332520	1.654336
0.333008	1.654794
0.333496	1.654689
0.333984	1.654481
0.334473	1.654356
0.334961	1.654220
0.335449	1.654543
0.335937	1.654332
0.336426	1.654543
0.336914	1.654367
0.337402	1.654743
0.337891	1.654633
0.338379	1.654365
0.338867	1.654406
0.339355	1.654504
0.339844	1.654500
0.340332	1.654784
0.340820	1.654359
0.341309	1.654006
0.341797	1.654356
0.342285	1.654428
0.342773	1.654563
0.343262	1.654223
0.343750	1.654589
0.344238	1.654475
0.344727	1.654367
0.345215	1.654231
0.345703	1.654462
0.346191	1.654248
0.346680	1.654632
0.347168	1.654462
0.347656	1.654375
0.348145	1.654135
0.348633	1.654253
0.349121	1.654488
0.349609	1.654397
0.350098	1.654330
0.350586	1.654321
0.351074	1.654249
0.351562	1.654514
0.352051	1.654710
0.352539	1.654392
0.353027	1.654361
0.353516	1.654197
0.354004	1.654309
0.354492	1.654511
0.354980	1.654565
0.355469	1.654123
0.355957	1.654131
0.356445	1.654586
0.356934	1.654536
0.357422	1.654405
0.357910	1.654419
0.358398	1.654071
0.358887	1.654377
0.359375	1.654389
0.359863	1.654343
0.360352	1.654580
0.360840	1.654388
0.361328	1.654406
0.361816	1.654333
0.362305	1.653912
0.362793	1.654392
0.363281	1.654391
0.363770	1.654341
0.364258	1.654203
0.364746	1.654466
0.365234	1.654257
0.365723	1.654338
0.366211	1.654406
0.366699	1.654432
0.367187	1.654541
0.367676	1.654645
0.368164	1.654483
0.368652	1.654230
0.369141	1.654491
0.369629	1.654488
0.370117	1.654414
0.370605	1.654423
0.371094	1.654275
0.371582	1.654144
0.372070	1.654225
0.372559	1.654286
0.373047	1.654449
0.373535	1.654301
0.374023	1.654204
0.374512	1.654348
0.375000	1.654359
0.375488	1.654214
0.375977	1.654177
0.376465	1.654273
0.376953	1.654334
0.377441	1.653930
0.377930	1.654026
0.378418	1.654034
0.378906	1.654048
0.379395	1.654371
0.379883	1.654361
0.380371	1.654438
0.380859	1.654137
0.381348	1.654333
0.381836	1.654110
0.382324	1.653919
0.382812	1.654541
0.383301	1.654494
0.383789	1.654100
0.384277	1.654074
0.384766	1.654189
0.385254	1.654209
0.385742	1.654188
0.386230	1.654120
0.386719	1.653929
0.387207	1.654378
0.387695	1.654405
0.388184	1.654137
0.388672	1.654135
0.389160	1.654273
0.389648	1.654225
0.390137	1.654384
0.390625	1.654309
0.391113	1.654114
0.391602	1.654292
0.392090	1.654209
0.392578	1.654363
0.393066	1.654708
0.393555	1.654497
0.394043	1.654309
0.394531	1.654228
0.395020	1.654197
0.395508	1.654438
0.395996	1.654287
0.396484	1.654367
0.396973	1.654239
0.397461	1.654896
0.397949	1.654611
0.398437	1.654356
0.398926	1.654392
0.399414	1.654683
0.399902	1.654518
0.400391	1.654310
0.400879	1.654108
0.401367	1.654196
0.401855	1.654549
0.402344	1.654646
0.402832	1.654391
0.403320	1.654442
0.403809	1.654384
0.404297	1.654574
0.404785	1.654184
0.405273	1.654212
0.405762	1.654596
0.406250	1.654696
0.406738	1.654532
0.407227	1.654486
0.407715	1.654114
0.408203	1.654254
0.408691	1.654535
0.409180	1.654458
0.409668	1.654359
0.410156	1.654205
0.410645	1.654283
0.411133	1.654195
0.411621	1.654103
0.412109	1.654429
0.412598	1.654192
0.413086	1.654383
0.413574	1.654265
0.414062	1.654421
0.414551	1.654134
0.415039	1.654131
0.415527	1.654300
0.416016	1.654413
0.416504	1.654422
0.416992	1.654339
0.417480	1.654215
0.417969	1.654303
0.418457	1.654496
0.418945	1.654535
0.419434	1.653988
0.419922	1.654201
0.420410	1.654693
0.420898	1.654259
0.421387	1.654461
0.421875	1.654221
0.422363	1.654324
0.422852	1.654165
0.423340	1.654004
0.423828	1.654151
0.424316	1.654218
0.424805	1.654292
0.425293	1.654241
0.425781	1.654240
0.426270	1.654215
0.426758	1.654216
0.427246	1.654146
0.427734	1.654143
0.428223	1.654354
0.428711	1.654827
0.429199	1.654372
0.429687	1.654136
0.430176	1.654405
0.430664	1.654408
0.431152	1.654472
0.431641	1.654425
0.432129	1.654036
0.432617	1.654385
0.433105	1.654767
0.433594	1.654453
0.434082	1.654362
0.434570	1.654312
0.435059	1.654524
0.435547	1.654448
0.436035	1.654167
0.436523	1.654206
0.437012	1.654340
0.437500	1.654852
0.437988	1.654815
0.438477	1.654627
0.438965	1.654456
0.439453	1.654285
0.439941	1.654621
0.440430	1.654239
0.440918	1.654466
0.441406	1.654525
0.441895	1.654469
0.442383	1.654532
0.442871	1.654500
0.443359	1.654417
0.443848	1.654639
0.444336	1.654552
0.444824	1.654488
0.445312	1.654488
0.445801	1.654670
0.446289	1.654458
0.446777	1.654741
0.447266	1.654790
0.447754	1.654862
0.448242	1.654738
0.448730	1.654533
0.449219	1.654694
0.449707	1.654775
0.450195	1.654949
0.450684	1.654914
0.451172	1.654760
0.451660	1.654782
0.452148	1.654755
0.452637	1.654678
0.453125	1.654507
0.453613	1.654584
0.454102	1.654881
0.454590	1.654825
0.455078	1.654552
0.455566	1.654743
0.456055	1.654798
0.456543	1.654812
0.457031	1.654882
0.457520	1.654812
0.458008	1.654643
0.458496	1.654645
0.458984	1.654917
0.459473	1.654959
0.459961	1.654901
0.460449	1.654806
0.460937	1.654754
0.461426	1.655009
0.461914	1.654826
0.462402	1.654959
0.462891	1.654723
0.463379	1.654610
0.463867	1.654505
0.464355	1.654500
0.464844	1.654556
0.465332	1.654347
0.465820	1.654888
0.466309	1.654713
0.466797	1.654697
0.467285	1.654647
0.467773	1.654443
0.468262	1.654471
0.468750	1.654532
0.469238	1.654801
0.469727	1.655006
0.470215	1.654328
0.470703	1.654549
0.471191	1.654546
0.471680	1.654606
0.472168	1.654761
0.472656	1.654640
0.473145	1.654525
0.473633	1.654678
0.474121	1.654420
0.474609	1.654566
0.475098	1.654545
0.475586	1.654708
0.476074	1.654865
0.476562	1.654929
0.477051	1.654611
0.477539	1.654572
0.478027	1.654657
0.478516	1.654505
0.479004	1.654555
0.479492	1.654795
0.479980	1.654640
0.480469	1.654320
0.480957	1.654568
0.481445	1.654674
0.481934	1.654549
0.482422	1.654508
0.482910	1.654614
0.483398	1.654445
0.483887	1.654644
0.484375	1.654569
0.484863	1.654676
0.485352	1.654699
0.485840	1.654873
0.486328	1.654686
0.486816	1.654602
0.487305	1.654598
0.487793	1.654610
0.488281	1.654734
0.488770	1.654622
0.489258	1.654542
0.489746	1.654606
0.490234	1.654708
0.490723	1.654569
0.491211	1.654680
0.491699	1.654604
0.492187	1.654154
0.492676	1.654166
0.493164	1.654784
0.493652	1.654396
0.494141	1.654105
0.494629	1.654142
0.495117	1.654341
0.495605	1.654508
0.496094	1.654604
0.496582	1.654350
0.497070	1.654303
0.497559	1.654247
0.498047	1.654309
0.498535	1.654412
0.499023	1.654403
0.499512	1.654165
0.500000	1.654572
0.500488	1.654843
0.500977	1.654383
0.501465	1.654526
0.501953	1.654600
0.502441	1.654649
0.502930	1.654672
0.503418	1.654391
0.503906	1.654355
0.504395	1.654375
0.504883	1.654749
0.505371	1.654748
0.505859	1.654389
0.506348	1.654264
0.506836	1.654448
0.507324	1.654472
0.507812	1.654267
0.508301	1.654610
0.508789	1.654541
0.509277	1.654536
0.509766	1.654506
0.510254	1.654192
0.510742	1.654145
0.511230	1.654475
0.511719	1.654426
0.512207	1.654424
0.512695	1.654442
0.513184	1.654663
0.513672	1.654450
0.514160	1.654609
0.514648	1.654666
0.515137	1.654510
0.515625	1.654685
0.516113	1.654917
0.516602	1.654721
0.517090	1.654708
0.517578	1.654729
0.518066	1.654488
0.518555	1.654793
0.519043	1.654824
0.519531	1.654519
0.520020	1.654525
0.520508	1.654472
0.520996	1.654254
0.521484	1.654554
0.521973	1.654569
0.522461	1.654416
0.522949	1.654461
0.523437	1.654617
0.523926	1.654639
0.524414	1.654599
0.524902	1.654496
0.525391	1.654598
0.525879	1.654634
0.526367	1.654712
0.526855	1.654811
0.527344	1.654572
0.527832	1.654686
0.528320	1.654795
0.528809	1.654991
0.529297	1.654858
0.529785	1.654652
